SpectraSuite Data File
++++++++++++++++++++++++++++++++++++
Date: Wed Jan 04 02:05:02 GMT-03:00 2006
User: Lavfis
Dark Spectrum Present: Yes
Reference Spectrum Present: Yes
Number of Sampled Component Spectra: 1
Spectrometers: HR4C5405
Integration Time (usec): 4000 (HR4C5405)
Spectra Averaged: 4 (HR4C5405)
Boxcar Smoothing: 4 (HR4C5405)
Correct for Electrical Dark: Yes (HR4C5405)
Strobe/Lamp Enabled: No (HR4C5405)
Correct for Detector Non-linearity: No (HR4C5405)
Correct for Stray Light: No (HR4C5405)
Number of Pixels in Processed Spectrum: 3648
>>>>>Begin Processed Spectral Data<<<<<
194,53	0,008
194,80	-0,009
195,07	-0,009
195,34	0,024
195,61	0,008
195,88	0,016
196,15	0,025
196,42	0,044
196,69	0,082
196,96	0,136
197,23	0,162
197,50	0,090
197,77	-0,000
198,04	-0,160
198,31	-0,562
198,58	0,100
198,85	0,338
199,12	0,267
199,39	0,210
199,66	0,203
199,93	0,240
200,20	0,210
200,47	0,258
200,74	0,168
201,01	0,236
201,28	0,079
201,55	0,083
201,82	0,066
202,09	0,044
202,36	0,041
202,63	0,010
202,90	-0,033
203,17	-0,055
203,44	-0,053
203,71	-0,006
203,98	0,006
204,25	-0,000
204,52	0,050
204,79	0,060
205,06	0,064
205,33	0,077
205,60	0,082
205,86	0,089
206,13	0,077
206,40	0,068
206,67	0,076
206,94	0,046
207,21	0,046
207,48	0,022
207,75	0,024
208,02	0,028
208,29	0,031
208,56	0,032
208,83	0,032
209,10	0,027
209,37	0,046
209,64	0,070
209,91	0,152
210,18	0,175
210,45	0,301
210,72	0,265
210,99	0,341
211,26	-0,000
211,53	0,714
211,80	0,827
212,07	0,401
212,33	0,327
212,60	0,366
212,87	0,104
213,14	0,130
213,41	0,144
213,68	0,127
213,95	0,097
214,22	0,060
214,49	0,078
214,76	0,033
215,03	0,013
215,30	0,061
215,57	0,089
215,84	0,448
216,11	0,180
216,38	-0,487
216,65	0,660
216,91	0,531
217,18	0,458
217,45	-0,000
217,72	0,935
217,99	0,655
218,26	0,336
218,53	0,372
218,80	0,327
219,07	0,457
219,34	0,444
219,61	0,573
219,88	0,333
220,15	0,318
220,42	0,443
220,68	0,384
220,95	0,383
221,22	0,462
221,49	0,369
221,76	0,320
222,03	0,314
222,30	0,392
222,57	0,410
222,84	0,333
223,11	0,354
223,38	0,322
223,65	0,342
223,92	0,355
224,18	0,471
224,45	0,455
224,72	0,534
224,99	0,601
225,26	0,653
225,53	0,604
225,80	0,665
226,07	0,739
226,34	0,741
226,61	0,688
226,88	0,776
227,14	0,717
227,41	0,680
227,68	0,678
227,95	0,707
228,22	0,874
228,49	0,825
228,76	0,844
229,03	0,912
229,30	0,938
229,57	0,950
229,83	0,799
230,10	0,740
230,37	0,793
230,64	0,744
230,91	0,732
231,18	0,797
231,45	0,812
231,72	0,852
231,99	0,915
232,25	1,151
232,52	1,254
232,79	1,252
233,06	1,085
233,33	1,081
233,60	1,110
233,87	1,154
234,14	1,044
234,41	1,036
234,67	0,894
234,94	0,866
235,21	0,840
235,48	0,865
235,75	0,827
236,02	0,812
236,29	0,738
236,56	0,808
236,82	0,764
237,09	0,821
237,36	0,849
237,63	0,877
237,90	0,877
238,17	0,902
238,44	0,856
238,71	0,870
238,97	0,773
239,24	0,768
239,51	0,720
239,78	0,700
240,05	0,631
240,32	0,656
240,59	0,602
240,86	0,546
241,12	0,505
241,39	0,468
241,66	0,492
241,93	0,517
242,20	0,528
242,47	0,549
242,74	0,554
243,00	0,705
243,27	0,862
243,54	1,081
243,81	-0,000
244,08	-0,000
244,35	-0,000
244,62	-0,000
244,88	-0,000
245,15	-0,000
245,42	1,564
245,69	0,953
245,96	0,802
246,23	0,659
246,50	0,519
246,76	0,482
247,03	0,538
247,30	0,780
247,57	0,544
247,84	0,587
248,11	0,626
248,37	0,696
248,64	0,709
248,91	0,677
249,18	0,527
249,45	0,443
249,72	0,356
249,99	0,378
250,25	0,402
250,52	0,415
250,79	0,389
251,06	0,379
251,33	0,418
251,60	0,460
251,86	0,491
252,13	0,533
252,40	0,526
252,67	0,512
252,94	0,521
253,21	0,612
253,47	0,632
253,74	0,636
254,01	0,728
254,28	0,804
254,55	0,790
254,81	0,881
255,08	0,849
255,35	0,959
255,62	0,912
255,89	0,994
256,16	0,984
256,42	0,921
256,69	0,976
256,96	1,090
257,23	1,142
257,50	1,210
257,76	1,119
258,03	1,159
258,30	1,224
258,57	1,351
258,84	1,477
259,11	1,374
259,37	1,338
259,64	1,417
259,91	1,433
260,18	1,546
260,45	1,660
260,71	1,588
260,98	1,570
261,25	1,729
261,52	1,776
261,79	1,702
262,05	1,544
262,32	1,519
262,59	1,630
262,86	1,638
263,13	1,705
263,39	1,662
263,66	1,542
263,93	1,592
264,20	1,699
264,47	1,738
264,73	1,883
265,00	1,816
265,27	1,820
265,54	1,905
265,81	2,215
266,07	2,310
266,34	2,207
266,61	2,155
266,88	2,103
267,15	2,045
267,41	1,957
267,68	1,941
267,95	1,848
268,22	1,786
268,48	1,750
268,75	1,729
269,02	1,668
269,29	1,648
269,56	1,642
269,82	1,680
270,09	1,636
270,36	1,613
270,63	1,599
270,89	1,595
271,16	1,647
271,43	1,697
271,70	1,720
271,97	1,697
272,23	1,674
272,50	1,718
272,77	1,823
273,04	1,767
273,30	1,806
273,57	1,910
273,84	2,000
274,11	2,050
274,37	2,122
274,64	2,244
274,91	2,348
275,18	2,528
275,45	-0,000
275,71	3,373
275,98	2,175
276,25	1,972
276,52	2,063
276,78	2,169
277,05	2,058
277,32	1,962
277,59	1,865
277,85	1,815
278,12	1,871
278,39	1,856
278,66	1,924
278,92	1,835
279,19	1,727
279,46	1,726
279,73	1,760
279,99	1,741
280,26	1,801
280,53	1,697
280,80	1,721
281,06	1,700
281,33	1,775
281,60	1,896
281,87	1,942
282,13	1,883
282,40	1,881
282,67	1,836
282,94	2,081
283,20	2,071
283,47	2,314
283,74	2,228
284,01	2,171
284,27	2,285
284,54	2,703
284,81	2,428
285,07	2,586
285,34	2,192
285,61	2,398
285,88	2,095
286,14	2,021
286,41	1,982
286,68	1,872
286,95	1,794
287,21	1,853
287,48	1,865
287,75	1,892
288,02	1,851
288,28	1,899
288,55	1,951
288,82	1,877
289,08	1,880
289,35	2,616
289,62	-0,000
289,89	3,734
290,15	3,452
290,42	-0,000
290,69	-0,000
290,95	-0,000
291,22	-0,000
291,49	-0,000
291,76	2,257
292,02	2,069
292,29	1,946
292,56	1,930
292,82	1,800
293,09	1,729
293,36	1,701
293,63	1,686
293,89	1,699
294,16	1,715
294,43	1,668
294,69	1,650
294,96	1,644
295,23	1,638
295,50	1,636
295,76	1,619
296,03	1,584
296,30	1,575
296,56	1,573
296,83	1,583
297,10	1,565
297,36	1,553
297,63	1,521
297,90	1,492
298,16	1,476
298,43	1,477
298,70	1,453
298,97	1,433
299,23	1,421
299,50	1,394
299,77	1,359
300,03	1,345
300,30	1,317
300,57	1,290
300,83	1,271
301,10	1,251
301,37	1,242
301,63	1,227
301,90	1,220
302,17	1,198
302,44	1,175
302,70	1,171
302,97	1,152
303,24	1,132
303,50	1,115
303,77	1,094
304,04	1,078
304,30	1,070
304,57	1,059
304,84	1,054
305,10	1,047
305,37	1,050
305,64	1,039
305,90	1,031
306,17	1,018
306,44	1,003
306,70	0,983
306,97	0,981
307,24	0,965
307,50	0,943
307,77	0,924
308,04	0,914
308,30	0,902
308,57	0,890
308,84	0,880
309,10	0,873
309,37	0,860
309,64	0,851
309,90	0,841
310,17	0,832
310,44	0,821
310,70	0,812
310,97	0,802
311,24	0,794
311,50	0,787
311,77	0,781
312,04	0,777
312,30	0,773
312,57	0,767
312,84	0,762
313,10	0,760
313,37	0,752
313,63	0,748
313,90	0,740
314,17	0,732
314,43	0,724
314,70	0,717
314,97	0,712
315,23	0,706
315,50	0,698
315,77	0,696
316,03	0,689
316,30	0,684
316,57	0,681
316,83	0,677
317,10	0,673
317,36	0,669
317,63	0,666
317,90	0,663
318,16	0,657
318,43	0,654
318,70	0,654
318,96	0,648
319,23	0,644
319,50	0,640
319,76	0,633
320,03	0,628
320,29	0,623
320,56	0,618
320,83	0,611
321,09	0,605
321,36	0,603
321,63	0,602
321,89	0,601
322,16	0,599
322,42	0,599
322,69	0,594
322,96	0,591
323,22	0,587
323,49	0,582
323,76	0,577
324,02	0,573
324,29	0,570
324,55	0,568
324,82	0,561
325,09	0,560
325,35	0,559
325,62	0,559
325,88	0,560
326,15	0,560
326,42	0,558
326,68	0,553
326,95	0,549
327,21	0,548
327,48	0,546
327,75	0,541
328,01	0,537
328,28	0,533
328,55	0,527
328,81	0,525
329,08	0,525
329,34	0,525
329,61	0,523
329,88	0,522
330,14	0,524
330,41	0,523
330,67	0,522
330,94	0,521
331,21	0,518
331,47	0,514
331,74	0,514
332,00	0,512
332,27	0,508
332,53	0,503
332,80	0,501
333,07	0,502
333,33	0,500
333,60	0,498
333,86	0,498
334,13	0,494
334,40	0,493
334,66	0,491
334,93	0,489
335,19	0,488
335,46	0,482
335,73	0,479
335,99	0,478
336,26	0,476
336,52	0,474
336,79	0,471
337,05	0,469
337,32	0,469
337,59	0,467
337,85	0,468
338,12	0,469
338,38	0,469
338,65	0,468
338,91	0,467
339,18	0,466
339,45	0,464
339,71	0,461
339,98	0,459
340,24	0,456
340,51	0,454
340,77	0,451
341,04	0,450
341,31	0,450
341,57	0,448
341,84	0,448
342,10	0,447
342,37	0,447
342,63	0,446
342,90	0,445
343,17	0,444
343,43	0,441
343,70	0,439
343,96	0,438
344,23	0,436
344,49	0,436
344,76	0,434
345,02	0,433
345,29	0,430
345,56	0,429
345,82	0,427
346,09	0,424
346,35	0,421
346,62	0,420
346,88	0,418
347,15	0,417
347,41	0,417
347,68	0,418
347,94	0,416
348,21	0,417
348,48	0,415
348,74	0,413
349,01	0,413
349,27	0,412
349,54	0,411
349,80	0,409
350,07	0,408
350,33	0,406
350,60	0,403
350,86	0,403
351,13	0,402
351,39	0,399
351,66	0,397
351,93	0,394
352,19	0,393
352,46	0,390
352,72	0,389
352,99	0,388
353,25	0,387
353,52	0,385
353,78	0,384
354,05	0,384
354,31	0,384
354,58	0,383
354,84	0,383
355,11	0,381
355,37	0,380
355,64	0,378
355,90	0,378
356,17	0,378
356,43	0,376
356,70	0,373
356,97	0,371
357,23	0,368
357,50	0,367
357,76	0,367
358,03	0,365
358,29	0,364
358,56	0,362
358,82	0,361
359,09	0,361
359,35	0,361
359,62	0,361
359,88	0,361
360,15	0,360
360,41	0,359
360,68	0,359
360,94	0,358
361,21	0,357
361,47	0,355
361,74	0,355
362,00	0,354
362,27	0,353
362,53	0,350
362,80	0,349
363,06	0,347
363,33	0,346
363,59	0,345
363,86	0,344
364,12	0,343
364,39	0,341
364,65	0,341
364,92	0,341
365,18	0,341
365,45	0,339
365,71	0,339
365,98	0,338
366,24	0,337
366,51	0,334
366,77	0,334
367,04	0,332
367,30	0,330
367,57	0,328
367,83	0,327
368,10	0,326
368,36	0,325
368,63	0,325
368,89	0,325
369,15	0,324
369,42	0,324
369,68	0,323
369,95	0,322
370,21	0,320
370,48	0,318
370,74	0,318
371,01	0,315
371,27	0,314
371,54	0,313
371,80	0,311
372,07	0,311
372,33	0,309
372,60	0,308
372,86	0,308
373,13	0,306
373,39	0,306
373,66	0,305
373,92	0,304
374,18	0,304
374,45	0,303
374,71	0,303
374,98	0,302
375,24	0,301
375,51	0,302
375,77	0,301
376,04	0,300
376,30	0,299
376,57	0,297
376,83	0,297
377,10	0,296
377,36	0,296
377,62	0,295
377,89	0,293
378,15	0,292
378,42	0,291
378,68	0,290
378,95	0,291
379,21	0,289
379,48	0,288
379,74	0,287
380,00	0,286
380,27	0,287
380,53	0,287
380,80	0,287
381,06	0,287
381,33	0,286
381,59	0,286
381,86	0,286
382,12	0,285
382,38	0,284
382,65	0,283
382,91	0,281
383,18	0,280
383,44	0,280
383,71	0,279
383,97	0,278
384,24	0,279
384,50	0,278
384,76	0,278
385,03	0,278
385,29	0,278
385,56	0,277
385,82	0,276
386,09	0,276
386,35	0,275
386,61	0,273
386,88	0,272
387,14	0,272
387,41	0,272
387,67	0,271
387,94	0,271
388,20	0,271
388,46	0,271
388,73	0,270
388,99	0,269
389,26	0,269
389,52	0,269
389,78	0,269
390,05	0,268
390,31	0,268
390,58	0,268
390,84	0,267
391,11	0,267
391,37	0,267
391,63	0,267
391,90	0,267
392,16	0,267
392,43	0,267
392,69	0,265
392,95	0,266
393,22	0,267
393,48	0,267
393,75	0,267
394,01	0,267
394,27	0,266
394,54	0,266
394,80	0,266
395,07	0,266
395,33	0,265
395,59	0,264
395,86	0,265
396,12	0,266
396,39	0,266
396,65	0,267
396,91	0,267
397,18	0,266
397,44	0,266
397,71	0,266
397,97	0,266
398,23	0,267
398,50	0,267
398,76	0,266
399,03	0,266
399,29	0,266
399,55	0,267
399,82	0,268
400,08	0,269
400,34	0,270
400,61	0,270
400,87	0,271
401,14	0,272
401,40	0,274
401,66	0,274
401,93	0,274
402,19	0,275
402,46	0,276
402,72	0,276
402,98	0,276
403,25	0,275
403,51	0,276
403,77	0,276
404,04	0,277
404,30	0,278
404,57	0,279
404,83	0,279
405,09	0,281
405,36	0,283
405,62	0,284
405,88	0,284
406,15	0,285
406,41	0,285
406,67	0,285
406,94	0,285
407,20	0,286
407,47	0,285
407,73	0,285
407,99	0,286
408,26	0,287
408,52	0,288
408,78	0,289
409,05	0,290
409,31	0,291
409,57	0,292
409,84	0,293
410,10	0,294
410,37	0,294
410,63	0,295
410,89	0,294
411,16	0,296
411,42	0,295
411,68	0,296
411,95	0,295
412,21	0,295
412,47	0,296
412,74	0,297
413,00	0,297
413,26	0,297
413,53	0,296
413,79	0,296
414,05	0,296
414,32	0,296
414,58	0,296
414,84	0,294
415,11	0,295
415,37	0,295
415,63	0,296
415,90	0,295
416,16	0,295
416,42	0,295
416,69	0,296
416,95	0,296
417,21	0,297
417,48	0,298
417,74	0,298
418,00	0,298
418,27	0,298
418,53	0,297
418,79	0,297
419,06	0,297
419,32	0,297
419,58	0,297
419,85	0,297
420,11	0,296
420,37	0,295
420,64	0,296
420,90	0,296
421,16	0,297
421,43	0,296
421,69	0,296
421,95	0,296
422,22	0,296
422,48	0,297
422,74	0,297
423,01	0,298
423,27	0,299
423,53	0,298
423,79	0,299
424,06	0,299
424,32	0,299
424,58	0,300
424,85	0,300
425,11	0,299
425,37	0,300
425,64	0,300
425,90	0,301
426,16	0,302
426,43	0,302
426,69	0,303
426,95	0,305
427,21	0,306
427,48	0,307
427,74	0,308
428,00	0,308
428,27	0,309
428,53	0,309
428,79	0,309
429,06	0,310
429,32	0,309
429,58	0,310
429,84	0,310
430,11	0,311
430,37	0,311
430,63	0,312
430,90	0,312
431,16	0,313
431,42	0,313
431,68	0,315
431,95	0,315
432,21	0,315
432,47	0,316
432,74	0,316
433,00	0,316
433,26	0,316
433,52	0,315
433,79	0,315
434,05	0,314
434,31	0,313
434,58	0,312
434,84	0,311
435,10	0,310
435,36	0,310
435,63	0,310
435,89	0,309
436,15	0,309
436,41	0,308
436,68	0,308
436,94	0,307
437,20	0,306
437,47	0,306
437,73	0,305
437,99	0,303
438,25	0,301
438,52	0,299
438,78	0,298
439,04	0,296
439,30	0,295
439,57	0,293
439,83	0,292
440,09	0,290
440,35	0,287
440,62	0,288
440,88	0,287
441,14	0,286
441,41	0,284
441,67	0,283
441,93	0,281
442,19	0,279
442,46	0,278
442,72	0,278
442,98	0,274
443,24	0,272
443,51	0,270
443,77	0,269
444,03	0,269
444,29	0,267
444,56	0,265
444,82	0,263
445,08	0,261
445,34	0,260
445,61	0,259
445,87	0,258
446,13	0,256
446,39	0,254
446,65	0,253
446,92	0,252
447,18	0,252
447,44	0,251
447,70	0,250
447,97	0,249
448,23	0,247
448,49	0,246
448,75	0,244
449,02	0,242
449,28	0,241
449,54	0,241
449,80	0,240
450,07	0,239
450,33	0,237
450,59	0,236
450,85	0,236
451,11	0,235
451,38	0,235
451,64	0,234
451,90	0,233
452,16	0,232
452,43	0,232
452,69	0,232
452,95	0,232
453,21	0,231
453,47	0,231
453,74	0,230
454,00	0,229
454,26	0,229
454,52	0,230
454,79	0,229
455,05	0,229
455,31	0,229
455,57	0,228
455,83	0,228
456,10	0,228
456,36	0,228
456,62	0,227
456,88	0,227
457,14	0,227
457,41	0,227
457,67	0,227
457,93	0,226
458,19	0,226
458,45	0,227
458,72	0,227
458,98	0,228
459,24	0,227
459,50	0,228
459,76	0,227
460,03	0,228
460,29	0,228
460,55	0,228
460,81	0,228
461,07	0,227
461,34	0,227
461,60	0,227
461,86	0,227
462,12	0,227
462,38	0,227
462,65	0,227
462,91	0,227
463,17	0,228
463,43	0,229
463,69	0,229
463,96	0,230
464,22	0,229
464,48	0,229
464,74	0,229
465,00	0,229
465,26	0,229
465,53	0,229
465,79	0,229
466,05	0,229
466,31	0,229
466,57	0,229
466,84	0,229
467,10	0,229
467,36	0,229
467,62	0,228
467,88	0,228
468,14	0,228
468,41	0,227
468,67	0,227
468,93	0,226
469,19	0,226
469,45	0,226
469,71	0,225
469,98	0,225
470,24	0,225
470,50	0,224
470,76	0,224
471,02	0,226
471,28	0,226
471,55	0,225
471,81	0,224
472,07	0,223
472,33	0,222
472,59	0,221
472,85	0,220
473,12	0,218
473,38	0,216
473,64	0,214
473,90	0,214
474,16	0,213
474,42	0,212
474,68	0,211
474,95	0,210
475,21	0,209
475,47	0,208
475,73	0,206
475,99	0,205
476,25	0,203
476,52	0,202
476,78	0,200
477,04	0,199
477,30	0,198
477,56	0,196
477,82	0,195
478,08	0,193
478,35	0,192
478,61	0,190
478,87	0,189
479,13	0,188
479,39	0,186
479,65	0,184
479,91	0,183
480,17	0,181
480,44	0,180
480,70	0,179
480,96	0,178
481,22	0,176
481,48	0,174
481,74	0,173
482,00	0,172
482,27	0,171
482,53	0,169
482,79	0,168
483,05	0,166
483,31	0,165
483,57	0,163
483,83	0,162
484,09	0,160
484,36	0,159
484,62	0,157
484,88	0,155
485,14	0,154
485,40	0,152
485,66	0,151
485,92	0,149
486,18	0,148
486,44	0,147
486,71	0,146
486,97	0,144
487,23	0,144
487,49	0,142
487,75	0,142
488,01	0,141
488,27	0,140
488,53	0,139
488,79	0,138
489,06	0,137
489,32	0,136
489,58	0,135
489,84	0,134
490,10	0,132
490,36	0,131
490,62	0,130
490,88	0,129
491,14	0,129
491,40	0,128
491,67	0,127
491,93	0,127
492,19	0,126
492,45	0,125
492,71	0,124
492,97	0,124
493,23	0,123
493,49	0,122
493,75	0,121
494,01	0,121
494,28	0,120
494,54	0,120
494,80	0,119
495,06	0,119
495,32	0,118
495,58	0,118
495,84	0,117
496,10	0,117
496,36	0,116
496,62	0,115
496,88	0,115
497,14	0,114
497,41	0,114
497,67	0,114
497,93	0,113
498,19	0,112
498,45	0,112
498,71	0,111
498,97	0,111
499,23	0,110
499,49	0,110
499,75	0,109
500,01	0,109
500,27	0,108
500,53	0,107
500,80	0,107
501,06	0,107
501,32	0,106
501,58	0,106
501,84	0,106
502,10	0,106
502,36	0,106
502,62	0,106
502,88	0,106
503,14	0,105
503,40	0,105
503,66	0,105
503,92	0,104
504,18	0,104
504,44	0,104
504,70	0,103
504,97	0,102
505,23	0,102
505,49	0,102
505,75	0,101
506,01	0,101
506,27	0,101
506,53	0,101
506,79	0,100
507,05	0,100
507,31	0,100
507,57	0,100
507,83	0,100
508,09	0,100
508,35	0,100
508,61	0,099
508,87	0,099
509,13	0,099
509,39	0,099
509,65	0,099
509,91	0,098
510,17	0,098
510,43	0,098
510,70	0,098
510,96	0,098
511,22	0,098
511,48	0,097
511,74	0,097
512,00	0,097
512,26	0,098
512,52	0,097
512,78	0,097
513,04	0,097
513,30	0,097
513,56	0,097
513,82	0,097
514,08	0,097
514,34	0,097
514,60	0,097
514,86	0,097
515,12	0,097
515,38	0,097
515,64	0,097
515,90	0,097
516,16	0,097
516,42	0,096
516,68	0,097
516,94	0,096
517,20	0,096
517,46	0,096
517,72	0,096
517,98	0,096
518,24	0,096
518,50	0,096
518,76	0,096
519,02	0,096
519,28	0,096
519,54	0,096
519,80	0,096
520,06	0,096
520,32	0,096
520,58	0,095
520,84	0,095
521,10	0,095
521,36	0,095
521,62	0,095
521,88	0,095
522,14	0,095
522,40	0,096
522,66	0,096
522,92	0,096
523,18	0,096
523,44	0,096
523,70	0,097
523,96	0,097
524,22	0,097
524,48	0,097
524,74	0,097
525,00	0,097
525,26	0,097
525,52	0,096
525,78	0,096
526,04	0,096
526,30	0,096
526,56	0,095
526,82	0,095
527,08	0,095
527,34	0,095
527,60	0,095
527,86	0,095
528,12	0,096
528,38	0,096
528,64	0,096
528,90	0,096
529,16	0,096
529,42	0,096
529,68	0,096
529,94	0,096
530,20	0,096
530,46	0,096
530,72	0,095
530,98	0,095
531,24	0,095
531,50	0,095
531,76	0,096
532,02	0,096
532,28	0,095
532,54	0,096
532,80	0,096
533,06	0,096
533,32	0,096
533,58	0,096
533,84	0,096
534,10	0,095
534,35	0,095
534,61	0,095
534,87	0,096
535,13	0,095
535,39	0,095
535,65	0,095
535,91	0,095
536,17	0,095
536,43	0,096
536,69	0,096
536,95	0,096
537,21	0,096
537,47	0,096
537,73	0,096
537,99	0,095
538,25	0,095
538,51	0,095
538,77	0,094
539,03	0,094
539,29	0,094
539,55	0,094
539,80	0,094
540,06	0,093
540,32	0,093
540,58	0,093
540,84	0,093
541,10	0,093
541,36	0,093
541,62	0,093
541,88	0,092
542,14	0,093
542,40	0,093
542,66	0,093
542,92	0,093
543,18	0,093
543,44	0,093
543,70	0,093
543,95	0,093
544,21	0,093
544,47	0,092
544,73	0,092
544,99	0,092
545,25	0,092
545,51	0,092
545,77	0,092
546,03	0,092
546,29	0,092
546,55	0,092
546,81	0,092
547,07	0,092
547,32	0,092
547,58	0,092
547,84	0,092
548,10	0,092
548,36	0,092
548,62	0,092
548,88	0,093
549,14	0,092
549,40	0,092
549,66	0,092
549,92	0,092
550,18	0,092
550,43	0,092
550,69	0,092
550,95	0,092
551,21	0,091
551,47	0,091
551,73	0,091
551,99	0,091
552,25	0,091
552,51	0,092
552,77	0,092
553,03	0,092
553,28	0,091
553,54	0,091
553,80	0,091
554,06	0,091
554,32	0,090
554,58	0,090
554,84	0,090
555,10	0,089
555,36	0,089
555,61	0,089
555,87	0,089
556,13	0,089
556,39	0,089
556,65	0,090
556,91	0,090
557,17	0,090
557,43	0,091
557,69	0,091
557,94	0,091
558,20	0,091
558,46	0,091
558,72	0,091
558,98	0,091
559,24	0,090
559,50	0,091
559,76	0,090
560,02	0,090
