SpectraSuite Data File
++++++++++++++++++++++++++++++++++++
Date: Sun Jan 01 01:29:41 GMT-03:00 2006
User: Lavfis
Dark Spectrum Present: Yes
Reference Spectrum Present: Yes
Number of Sampled Component Spectra: 1
Spectrometers: HR4C5405
Integration Time (usec): 3800 (HR4C5405)
Spectra Averaged: 25 (HR4C5405)
Boxcar Smoothing: 10 (HR4C5405)
Correct for Electrical Dark: Yes (HR4C5405)
Strobe/Lamp Enabled: No (HR4C5405)
Correct for Detector Non-linearity: No (HR4C5405)
Correct for Stray Light: No (HR4C5405)
Number of Pixels in Processed Spectrum: 3648
>>>>>Begin Processed Spectral Data<<<<<
194,53	-0,009
194,80	-0,007
195,07	-0,007
195,34	-0,000
195,61	1,260
195,88	-0,351
196,15	0,201
196,42	-0,811
196,69	-0,016
196,96	-0,239
197,23	0,000
197,50	0,037
197,77	0,043
198,04	-1,287
198,31	-0,099
198,58	-0,050
198,85	-0,371
199,12	-0,082
199,39	-0,061
199,66	-0,043
199,93	-0,000
200,20	0,045
200,47	0,217
200,74	0,110
201,01	0,100
201,28	0,398
201,55	0,166
201,82	0,105
202,09	0,131
202,36	-0,079
202,63	0,089
202,90	1,020
203,17	0,161
203,44	0,148
203,71	0,511
203,98	0,054
204,25	0,066
204,52	-0,703
204,79	-0,099
205,06	0,078
205,33	0,035
205,60	0,110
205,86	-0,056
206,13	-0,000
206,40	0,050
206,67	0,039
206,94	0,077
207,21	-0,117
207,48	0,042
207,75	0,055
208,02	0,200
208,29	0,079
208,56	0,090
208,83	-0,318
209,10	0,900
209,37	0,034
209,64	-0,410
209,91	0,160
210,18	-0,000
210,45	0,433
210,72	0,066
210,99	-0,160
211,26	-0,080
211,53	-0,193
211,80	-0,119
212,07	-0,917
212,33	0,092
212,60	0,516
212,87	-2,590
213,14	0,470
213,41	0,303
213,68	0,069
213,95	-1,832
214,22	-0,393
214,49	0,332
214,76	-0,097
215,03	-0,187
215,30	-0,184
215,57	-0,000
215,84	0,044
216,11	-0,065
216,38	-0,167
216,65	-0,084
216,91	0,170
217,18	0,060
217,45	-0,110
217,72	0,123
217,99	0,160
218,26	-0,000
218,53	-0,230
218,80	-0,157
219,07	0,211
219,34	-0,228
219,61	0,463
219,88	1,405
220,15	-0,168
220,42	-0,098
220,68	0,077
220,95	0,064
221,22	1,153
221,49	0,116
221,76	0,080
222,03	-0,000
222,30	0,057
222,57	-0,000
222,84	0,267
223,11	0,188
223,38	0,201
223,65	-0,000
223,92	0,144
224,18	0,134
224,45	0,076
224,72	0,093
224,99	-0,207
225,26	-0,000
225,53	0,051
225,80	0,248
226,07	0,608
226,34	-0,155
226,61	-1,480
226,88	0,085
227,14	-0,274
227,41	-0,000
227,68	-0,183
227,95	-0,000
228,22	0,096
228,49	-0,172
228,76	0,277
229,03	-0,139
229,30	-0,000
229,57	0,179
229,83	-0,734
230,10	-0,000
230,37	-1,254
230,64	0,244
230,91	0,090
231,18	-0,000
231,45	1,333
231,72	1,819
231,99	0,152
232,25	0,335
232,52	0,599
232,79	0,125
233,06	0,180
233,33	0,435
233,60	0,289
233,87	0,450
234,14	-0,272
234,41	0,611
234,67	-0,000
234,94	-0,000
235,21	0,430
235,48	-0,000
235,75	0,230
236,02	-0,341
236,29	-0,000
236,56	-0,287
236,82	-0,358
237,09	0,152
237,36	0,153
237,63	0,409
237,90	-0,000
238,17	0,084
238,44	-0,747
238,71	0,164
238,97	-0,092
239,24	-0,685
239,51	0,372
239,78	0,171
240,05	-0,000
240,32	-0,320
240,59	0,127
240,86	0,564
241,12	0,558
241,39	-0,848
241,66	0,629
241,93	-0,000
242,20	-0,196
242,47	-0,165
242,74	-0,128
243,00	-0,000
243,27	-0,000
243,54	0,369
243,81	-0,156
244,08	0,233
244,35	-0,177
244,62	-0,000
244,88	0,197
245,15	-0,475
245,42	0,133
245,69	0,198
245,96	-0,000
246,23	-0,345
246,50	-0,197
246,76	-0,000
247,03	-0,000
247,30	-0,000
247,57	-0,000
247,84	0,201
248,11	-0,000
248,37	0,646
248,64	0,679
248,91	0,318
249,18	-0,000
249,45	-0,000
249,72	0,223
249,99	0,449
250,25	-1,013
250,52	-0,000
250,79	-0,186
251,06	-0,000
251,33	0,321
251,60	0,201
251,86	0,450
252,13	0,274
252,40	-1,002
252,67	-0,000
252,94	0,863
253,21	0,826
253,47	-0,670
253,74	0,285
254,01	0,177
254,28	-0,479
254,55	-0,000
254,81	0,676
255,08	0,986
255,35	0,275
255,62	0,099
255,89	0,407
256,16	0,167
256,42	0,203
256,69	-0,416
256,96	-0,412
257,23	0,467
257,50	0,213
257,76	0,268
258,03	0,146
258,30	0,117
258,57	0,129
258,84	0,028
259,11	0,018
259,37	-0,070
259,64	-0,087
259,91	-0,073
260,18	-0,125
260,45	-0,410
260,71	-0,000
260,98	-0,199
261,25	-0,097
261,52	-0,150
261,79	-0,596
262,05	-0,526
262,32	-0,450
262,59	-0,177
262,86	-0,275
263,13	-0,469
263,39	-0,642
263,66	-0,257
263,93	-0,621
264,20	-0,696
264,47	-0,600
264,73	-0,462
265,00	-0,399
265,27	-0,540
265,54	-0,381
265,81	-0,000
266,07	-0,000
266,34	-0,747
266,61	-0,672
266,88	-0,831
267,15	-0,602
267,41	-1,256
267,68	-0,598
267,95	-0,631
268,22	-0,615
268,48	-1,002
268,75	-0,538
269,02	-0,556
269,29	-1,051
269,56	-0,541
269,82	-0,495
270,09	-0,723
270,36	-0,634
270,63	-0,607
270,89	-0,526
271,16	-0,639
271,43	-0,784
271,70	-0,611
271,97	-0,621
272,23	-0,610
272,50	-0,685
272,77	-0,602
273,04	-0,455
273,30	-0,838
273,57	-0,675
273,84	-0,619
274,11	-0,539
274,37	-0,724
274,64	-0,637
274,91	-0,513
275,18	-0,583
275,45	-0,508
275,71	-0,561
275,98	-0,496
276,25	-0,528
276,52	-0,684
276,78	-0,403
277,05	-0,450
277,32	-0,530
277,59	-0,450
277,85	-0,486
278,12	-0,508
278,39	-0,416
278,66	-0,434
278,92	-0,459
279,19	-0,550
279,46	-0,576
279,73	-0,361
279,99	-0,416
280,26	-0,412
280,53	-0,347
280,80	-0,347
281,06	-0,284
281,33	-0,302
281,60	-0,297
281,87	-0,234
282,13	-0,250
282,40	-0,238
282,67	-0,255
282,94	-0,231
283,20	-0,185
283,47	-0,215
283,74	-0,174
284,01	-0,142
284,27	-0,131
284,54	-0,123
284,81	-0,099
285,07	-0,085
285,34	-0,070
285,61	-0,061
285,88	-0,044
286,14	-0,037
286,41	-0,023
286,68	-0,013
286,95	-0,002
287,21	0,009
287,48	0,018
287,75	0,024
288,02	0,034
288,28	0,043
288,55	0,051
288,82	0,059
289,08	0,070
289,35	0,079
289,62	0,103
289,89	0,116
290,15	0,124
290,42	0,130
290,69	0,143
290,95	0,160
291,22	0,169
291,49	0,183
291,76	0,188
292,02	0,191
292,29	0,204
292,56	0,211
292,82	0,221
293,09	0,240
293,36	0,244
293,63	0,250
293,89	0,254
294,16	0,265
294,43	0,264
294,69	0,264
294,96	0,277
295,23	0,273
295,50	0,263
295,76	0,277
296,03	0,269
296,30	0,280
296,56	0,283
296,83	0,284
297,10	0,290
297,36	0,302
297,63	0,295
297,90	0,309
298,16	0,323
298,43	0,324
298,70	0,325
298,97	0,334
299,23	0,340
299,50	0,345
299,77	0,334
300,03	0,346
300,30	0,361
300,57	0,352
300,83	0,354
301,10	0,368
301,37	0,382
301,63	0,381
301,90	0,384
302,17	0,400
302,44	0,397
302,70	0,402
302,97	0,396
303,24	0,397
303,50	0,389
303,77	0,392
304,04	0,399
304,30	0,401
304,57	0,402
304,84	0,401
305,10	0,396
305,37	0,405
305,64	0,394
305,90	0,409
306,17	0,405
306,44	0,413
306,70	0,405
306,97	0,408
307,24	0,410
307,50	0,408
307,77	0,421
308,04	0,420
308,30	0,425
308,57	0,419
308,84	0,421
309,10	0,421
309,37	0,422
309,64	0,430
309,90	0,425
310,17	0,430
310,44	0,436
310,70	0,431
310,97	0,441
311,24	0,438
311,50	0,446
311,77	0,452
312,04	0,452
312,30	0,450
312,57	0,451
312,84	0,478
313,10	0,481
313,37	0,478
313,63	0,482
313,90	0,479
314,17	0,487
314,43	0,494
314,70	0,492
314,97	0,483
315,23	0,497
315,50	0,493
315,77	0,493
316,03	0,484
316,30	0,491
316,57	0,505
316,83	0,516
317,10	0,494
317,36	0,500
317,63	0,509
317,90	0,514
318,16	0,506
318,43	0,504
318,70	0,498
318,96	0,494
319,23	0,493
319,50	0,490
319,76	0,494
320,03	0,491
320,29	0,495
320,56	0,499
320,83	0,508
321,09	0,501
321,36	0,491
321,63	0,489
321,89	0,486
322,16	0,495
322,42	0,493
322,69	0,501
322,96	0,495
323,22	0,491
323,49	0,496
323,76	0,493
324,02	0,483
324,29	0,492
324,55	0,497
324,82	0,495
325,09	0,496
325,35	0,491
325,62	0,495
325,88	0,497
326,15	0,491
326,42	0,494
326,68	0,498
326,95	0,504
327,21	0,507
327,48	0,501
327,75	0,506
328,01	0,501
328,28	0,500
328,55	0,492
328,81	0,491
329,08	0,496
329,34	0,502
329,61	0,505
329,88	0,501
330,14	0,515
330,41	0,516
330,67	0,526
330,94	0,511
331,21	0,522
331,47	0,529
331,74	0,547
332,00	0,541
332,27	0,541
332,53	0,553
332,80	0,551
333,07	0,559
333,33	0,568
333,60	0,573
333,86	0,561
334,13	0,583
334,40	0,587
334,66	0,582
334,93	0,595
335,19	0,582
335,46	0,586
335,73	0,594
335,99	0,589
336,26	0,591
336,52	0,581
336,79	0,582
337,05	0,576
337,32	0,576
337,59	0,570
337,85	0,566
338,12	0,568
338,38	0,550
338,65	0,543
338,91	0,543
339,18	0,537
339,45	0,528
339,71	0,523
339,98	0,531
340,24	0,519
340,51	0,522
340,77	0,521
341,04	0,519
341,31	0,515
341,57	0,504
341,84	0,512
342,10	0,508
342,37	0,508
342,63	0,506
342,90	0,497
343,17	0,488
343,43	0,495
343,70	0,493
343,96	0,491
344,23	0,491
344,49	0,492
344,76	0,494
345,02	0,485
345,29	0,479
345,56	0,487
345,82	0,482
346,09	0,484
346,35	0,475
346,62	0,486
346,88	0,488
347,15	0,481
347,41	0,485
347,68	0,479
347,94	0,487
348,21	0,486
348,48	0,489
348,74	0,486
349,01	0,481
349,27	0,480
349,54	0,488
349,80	0,491
350,07	0,496
350,33	0,490
350,60	0,501
350,86	0,498
351,13	0,507
351,39	0,517
351,66	0,523
351,93	0,536
352,19	0,553
352,46	0,556
352,72	0,579
352,99	0,595
353,25	0,609
353,52	0,634
353,78	0,658
354,05	0,669
354,31	0,676
354,58	0,699
354,84	0,711
355,11	0,718
355,37	0,734
355,64	0,737
355,90	0,760
356,17	0,789
356,43	0,796
356,70	0,811
356,97	0,794
357,23	0,782
357,50	0,788
357,76	0,786
358,03	0,758
358,29	0,745
358,56	0,756
358,82	0,748
359,09	0,742
359,35	0,751
359,62	0,741
359,88	0,759
360,15	0,776
360,41	0,778
360,68	0,799
360,94	0,816
361,21	0,861
361,47	0,868
361,74	0,883
362,00	0,899
362,27	0,909
362,53	0,926
362,80	0,949
363,06	0,968
363,33	0,992
363,59	1,036
363,86	0,988
364,12	1,002
364,39	1,027
364,65	1,004
364,92	0,951
365,18	0,945
365,45	0,904
365,71	0,877
365,98	0,830
366,24	0,815
366,51	0,772
366,77	0,733
367,04	0,705
367,30	0,684
367,57	0,661
367,83	0,648
368,10	0,638
368,36	0,619
368,63	0,607
368,89	0,597
369,15	0,582
369,42	0,584
369,68	0,586
369,95	0,583
370,21	0,579
370,48	0,587
370,74	0,604
371,01	0,603
371,27	0,627
371,54	0,643
371,80	0,662
372,07	0,687
372,33	0,711
372,60	0,717
372,86	0,756
373,13	0,816
373,39	0,853
373,66	0,886
373,92	0,922
374,18	0,969
374,45	1,014
374,71	1,103
374,98	1,139
375,24	1,217
375,51	1,296
375,77	1,333
376,04	1,438
376,30	1,452
376,57	1,573
376,83	1,730
377,10	1,646
377,36	1,659
377,62	1,639
377,89	1,643
378,15	1,642
378,42	1,586
378,68	1,488
378,95	1,378
379,21	1,335
379,48	1,255
379,74	1,165
380,00	1,128
380,27	1,035
380,53	1,004
380,80	0,929
381,06	0,878
381,33	0,828
381,59	0,794
381,86	0,753
382,12	0,707
382,38	0,678
382,65	0,653
382,91	0,623
383,18	0,598
383,44	0,584
383,71	0,563
383,97	0,537
384,24	0,524
384,50	0,507
384,76	0,492
385,03	0,480
385,29	0,474
385,56	0,472
385,82	0,460
386,09	0,448
386,35	0,447
386,61	0,444
386,88	0,442
387,14	0,441
387,41	0,437
387,67	0,432
387,94	0,436
388,20	0,433
388,46	0,428
388,73	0,429
388,99	0,429
389,26	0,430
389,52	0,429
389,78	0,426
390,05	0,423
390,31	0,428
390,58	0,424
390,84	0,427
391,11	0,425
391,37	0,427
391,63	0,426
391,90	0,425
392,16	0,428
392,43	0,427
392,69	0,426
392,95	0,428
393,22	0,425
393,48	0,428
393,75	0,430
394,01	0,423
394,27	0,429
394,54	0,425
394,80	0,424
395,07	0,423
395,33	0,421
395,59	0,427
395,86	0,423
396,12	0,427
396,39	0,427
396,65	0,428
396,91	0,429
397,18	0,429
397,44	0,424
397,71	0,430
397,97	0,433
398,23	0,426
398,50	0,426
398,76	0,436
399,03	0,436
399,29	0,439
399,55	0,444
399,82	0,446
400,08	0,450
400,34	0,459
400,61	0,473
400,87	0,477
401,14	0,491
401,40	0,510
401,66	0,525
401,93	0,545
402,19	0,560
402,46	0,576
402,72	0,593
402,98	0,620
403,25	0,627
403,51	0,642
403,77	0,675
404,04	0,694
404,30	0,713
404,57	0,726
404,83	0,745
405,09	0,746
405,36	0,756
405,62	0,746
405,88	0,762
406,15	0,767
406,41	0,756
406,67	0,729
406,94	0,712
407,20	0,706
407,47	0,676
407,73	0,660
407,99	0,654
408,26	0,632
408,52	0,608
408,78	0,593
409,05	0,572
409,31	0,562
409,57	0,544
409,84	0,535
410,10	0,526
410,37	0,511
410,63	0,494
410,89	0,487
411,16	0,485
411,42	0,477
411,68	0,472
411,95	0,460
412,21	0,456
412,47	0,450
412,74	0,444
413,00	0,435
413,26	0,433
413,53	0,429
413,79	0,424
414,05	0,411
414,32	0,409
414,58	0,411
414,84	0,406
415,11	0,406
415,37	0,407
415,63	0,401
415,90	0,402
416,16	0,400
416,42	0,402
416,69	0,396
416,95	0,398
417,21	0,405
417,48	0,401
417,74	0,399
418,00	0,400
418,27	0,402
418,53	0,401
418,79	0,398
419,06	0,393
419,32	0,399
419,58	0,400
419,85	0,395
420,11	0,399
420,37	0,396
420,64	0,399
420,90	0,399
421,16	0,398
421,43	0,397
421,69	0,400
421,95	0,395
422,22	0,394
422,48	0,399
422,74	0,398
423,01	0,396
423,27	0,391
423,53	0,398
423,79	0,397
424,06	0,392
424,32	0,392
424,58	0,397
424,85	0,395
425,11	0,395
425,37	0,392
425,64	0,394
425,90	0,391
426,16	0,390
426,43	0,395
426,69	0,393
426,95	0,393
427,21	0,391
427,48	0,388
427,74	0,389
428,00	0,392
428,27	0,393
428,53	0,392
428,79	0,389
429,06	0,390
429,32	0,392
429,58	0,391
429,84	0,390
430,11	0,388
430,37	0,389
430,63	0,390
430,90	0,390
431,16	0,390
431,42	0,389
431,68	0,393
431,95	0,391
432,21	0,392
432,47	0,397
432,74	0,395
433,00	0,393
433,26	0,396
433,52	0,394
433,79	0,396
434,05	0,402
434,31	0,398
434,58	0,401
434,84	0,400
435,10	0,408
435,36	0,407
435,63	0,412
435,89	0,410
436,15	0,415
436,41	0,423
436,68	0,429
436,94	0,434
437,20	0,444
437,47	0,448
437,73	0,458
437,99	0,475
438,25	0,490
438,52	0,497
438,78	0,516
439,04	0,522
439,30	0,539
439,57	0,555
439,83	0,565
440,09	0,580
440,35	0,592
440,62	0,605
440,88	0,602
441,14	0,622
441,41	0,627
441,67	0,640
441,93	0,636
442,19	0,639
442,46	0,649
442,72	0,638
442,98	0,654
443,24	0,646
443,51	0,628
443,77	0,640
444,03	0,635
444,29	0,631
444,56	0,632
444,82	0,630
445,08	0,644
445,34	0,650
445,61	0,654
445,87	0,671
446,13	0,687
446,39	0,683
446,65	0,707
446,92	0,724
447,18	0,739
447,44	0,750
447,70	0,747
447,97	0,760
448,23	0,754
448,49	0,756
448,75	0,767
449,02	0,771
449,28	0,771
449,54	0,761
449,80	0,772
450,07	0,760
450,33	0,754
450,59	0,759
450,85	0,740
451,11	0,727
451,38	0,710
451,64	0,688
451,90	0,674
452,16	0,656
452,43	0,635
452,69	0,622
452,95	0,607
453,21	0,588
453,47	0,577
453,74	0,562
454,00	0,544
454,26	0,535
454,52	0,515
454,79	0,504
455,05	0,489
455,31	0,478
455,57	0,462
455,83	0,449
456,10	0,443
456,36	0,433
456,62	0,427
456,88	0,413
457,14	0,408
457,41	0,402
457,67	0,395
457,93	0,390
458,19	0,384
458,45	0,382
458,72	0,380
458,98	0,378
459,24	0,377
459,50	0,373
459,76	0,374
460,03	0,374
460,29	0,371
460,55	0,371
460,81	0,371
461,07	0,370
461,34	0,371
461,60	0,370
461,86	0,371
462,12	0,367
462,38	0,370
462,65	0,372
462,91	0,369
463,17	0,368
463,43	0,368
463,69	0,368
463,96	0,369
464,22	0,370
464,48	0,370
464,74	0,369
465,00	0,370
465,26	0,367
465,53	0,369
465,79	0,368
466,05	0,369
466,31	0,368
466,57	0,368
466,84	0,369
467,10	0,370
467,36	0,371
467,62	0,370
467,88	0,372
468,14	0,371
468,41	0,371
468,67	0,370
468,93	0,371
469,19	0,370
469,45	0,371
469,71	0,372
469,98	0,370
470,24	0,371
470,50	0,372
470,76	0,372
471,02	0,371
471,28	0,373
471,55	0,372
471,81	0,374
472,07	0,374
472,33	0,372
472,59	0,375
472,85	0,375
473,12	0,376
473,38	0,377
473,64	0,378
473,90	0,379
474,16	0,381
474,42	0,381
474,68	0,382
474,95	0,385
475,21	0,387
475,47	0,389
475,73	0,390
475,99	0,393
476,25	0,396
476,52	0,400
476,78	0,403
477,04	0,406
477,30	0,409
477,56	0,415
477,82	0,420
478,08	0,425
478,35	0,431
478,61	0,439
478,87	0,449
479,13	0,458
479,39	0,469
479,65	0,482
479,91	0,494
480,17	0,512
480,44	0,529
480,70	0,550
480,96	0,571
481,22	0,597
481,48	0,625
481,74	0,654
482,00	0,685
482,27	0,718
482,53	0,755
482,79	0,798
483,05	0,840
483,31	0,881
483,57	0,936
483,83	0,981
484,09	1,035
484,36	1,094
484,62	1,145
484,88	1,194
485,14	1,239
485,40	1,276
485,66	1,303
485,92	1,332
486,18	1,334
486,44	1,348
486,71	1,351
486,97	1,341
487,23	1,350
487,49	1,332
487,75	1,321
488,01	1,310
488,27	1,285
488,53	1,247
488,79	1,220
489,06	1,196
489,32	1,186
489,58	1,141
489,84	1,114
490,10	1,082
490,36	1,054
490,62	1,025
490,88	0,998
491,14	0,962
491,40	0,931
491,67	0,890
491,93	0,852
492,19	0,821
492,45	0,779
492,71	0,744
492,97	0,709
493,23	0,679
493,49	0,648
493,75	0,619
494,01	0,590
494,28	0,563
494,54	0,539
494,80	0,515
495,06	0,496
495,32	0,476
495,58	0,458
495,84	0,442
496,10	0,429
496,36	0,416
496,62	0,408
496,88	0,401
497,14	0,394
497,41	0,387
497,67	0,382
497,93	0,379
498,19	0,376
498,45	0,374
498,71	0,372
498,97	0,370
499,23	0,369
499,49	0,368
499,75	0,368
500,01	0,367
500,27	0,367
500,53	0,366
500,80	0,366
501,06	0,364
501,32	0,365
501,58	0,365
501,84	0,365
502,10	0,364
502,36	0,364
502,62	0,365
502,88	0,365
503,14	0,365
503,40	0,366
503,66	0,365
503,92	0,365
504,18	0,367
504,44	0,368
504,70	0,367
504,97	0,371
505,23	0,371
505,49	0,372
505,75	0,374
506,01	0,375
506,27	0,377
506,53	0,381
506,79	0,383
507,05	0,386
507,31	0,388
507,57	0,391
507,83	0,396
508,09	0,401
508,35	0,404
508,61	0,410
508,87	0,413
509,13	0,419
509,39	0,425
509,65	0,429
509,91	0,437
510,17	0,443
510,43	0,450
510,70	0,458
510,96	0,467
511,22	0,475
511,48	0,486
511,74	0,495
512,00	0,507
512,26	0,517
512,52	0,531
512,78	0,546
513,04	0,557
513,30	0,575
513,56	0,590
513,82	0,610
514,08	0,631
514,34	0,655
514,60	0,680
514,86	0,707
515,12	0,737
515,38	0,758
515,64	0,801
515,90	0,832
516,16	0,864
516,42	0,914
516,68	0,947
516,94	0,977
517,20	1,045
517,46	1,078
517,72	1,134
517,98	1,198
518,24	1,252
518,50	1,322
518,76	1,390
519,02	1,478
519,28	1,532
519,54	1,595
519,80	1,663
520,06	1,726
520,32	1,778
520,58	1,755
520,84	1,773
521,10	1,712
521,36	1,653
521,62	1,608
521,88	1,590
522,14	1,541
522,40	1,466
522,66	1,367
522,92	1,304
523,18	1,237
523,44	1,182
523,70	1,127
523,96	1,072
524,22	1,040
524,48	0,982
524,74	0,943
525,00	0,897
525,26	0,859
525,52	0,821
525,78	0,790
526,04	0,753
526,30	0,724
526,56	0,693
526,82	0,664
527,08	0,641
527,34	0,616
527,60	0,597
527,86	0,575
528,12	0,554
528,38	0,536
528,64	0,519
528,90	0,504
529,16	0,488
529,42	0,477
529,68	0,463
529,94	0,453
530,20	0,443
530,46	0,433
530,72	0,427
530,98	0,419
531,24	0,413
531,50	0,408
531,76	0,403
532,02	0,400
532,28	0,396
532,54	0,393
532,80	0,391
533,06	0,388
533,32	0,390
533,58	0,389
533,84	0,390
534,10	0,390
534,35	0,391
534,61	0,395
534,87	0,398
535,13	0,402
535,39	0,408
535,65	0,414
535,91	0,420
536,17	0,430
536,43	0,441
536,69	0,455
536,95	0,470
537,21	0,485
537,47	0,504
537,73	0,524
537,99	0,543
538,25	0,561
538,51	0,579
538,77	0,603
539,03	0,622
539,29	0,641
539,55	0,659
539,80	0,670
540,06	0,688
540,32	0,696
540,58	0,699
540,84	0,707
541,10	0,705
541,36	0,696
541,62	0,693
541,88	0,682
542,14	0,663
542,40	0,649
542,66	0,641
542,92	0,618
543,18	0,606
543,44	0,587
543,70	0,570
543,95	0,556
544,21	0,549
544,47	0,542
544,73	0,532
544,99	0,525
545,25	0,521
545,51	0,516
545,77	0,513
546,03	0,510
546,29	0,508
546,55	0,504
546,81	0,501
547,07	0,496
547,32	0,496
547,58	0,492
547,84	0,486
548,10	0,487
548,36	0,481
548,62	0,476
548,88	0,472
549,14	0,462
549,40	0,457
549,66	0,451
549,92	0,444
550,18	0,429
550,43	0,422
550,69	0,414
550,95	0,405
551,21	0,399
551,47	0,387
551,73	0,379
551,99	0,374
552,25	0,366
552,51	0,360
552,77	0,355
553,03	0,349
553,28	0,344
553,54	0,343
553,80	0,336
554,06	0,332
554,32	0,328
554,58	0,326
554,84	0,325
555,10	0,322
555,36	0,321
555,61	0,318
555,87	0,318
556,13	0,318
556,39	0,316
