SpectraSuite Data File
++++++++++++++++++++++++++++++++++++
Date: Sun Jan 01 01:00:42 GMT-03:00 2006
User: Lavfis
Dark Spectrum Present: Yes
Reference Spectrum Present: Yes
Number of Sampled Component Spectra: 1
Spectrometers: HR4C5405
Integration Time (usec): 4000 (HR4C5405)
Spectra Averaged: 5 (HR4C5405)
Boxcar Smoothing: 3 (HR4C5405)
Correct for Electrical Dark: Yes (HR4C5405)
Strobe/Lamp Enabled: No (HR4C5405)
Correct for Detector Non-linearity: No (HR4C5405)
Correct for Stray Light: No (HR4C5405)
Number of Pixels in Processed Spectrum: 3648
>>>>>Begin Processed Spectral Data<<<<<
194,53	5,263
194,80	-59,306
195,07	-59,306
195,34	-69,141
195,61	-23,174
195,88	-15,964
196,15	-12,733
196,42	108,727
196,69	386,027
196,96	-577,852
197,23	210,018
197,50	-69,972
197,77	72,370
198,04	-5094,068
198,31	-53,382
198,58	-49,462
198,85	-49,300
199,12	-47,913
199,39	-35,374
199,66	-18,995
199,93	-16,693
200,20	-22,059
200,47	-24,954
200,74	-39,375
201,01	-11,873
201,28	0,950
201,55	-7,354
201,82	9,861
202,09	41,417
202,36	36,844
202,63	36,844
202,90	0,098
203,17	-25,291
203,44	1,380
203,71	-6,826
203,98	-9,122
204,25	0,116
204,52	3,640
204,79	41,764
205,06	55,584
205,33	59,115
205,60	66,531
205,86	67,481
206,13	84,047
206,40	72,487
206,67	43,370
206,94	-17,755
207,21	19,856
207,48	26,017
207,75	-8,014
208,02	-27,226
208,29	-1,236
208,56	5,892
208,83	21,576
209,10	11,624
209,37	6,115
209,64	7,540
209,91	9,684
210,18	-0,734
210,45	-14,707
210,72	-41,715
210,99	-74,852
211,26	-67,248
211,53	13,013
211,80	34,051
212,07	60,490
212,33	64,157
212,60	64,714
212,87	47,013
213,14	46,882
213,41	16,057
213,68	15,426
213,95	2,134
214,22	-7,861
214,49	6,339
214,76	9,515
215,03	6,529
215,30	12,387
215,57	11,746
215,84	12,108
216,11	12,654
216,38	15,195
216,65	22,303
216,91	38,192
217,18	33,427
217,45	35,377
217,72	40,495
217,99	50,217
218,26	51,365
218,53	42,994
218,80	30,261
219,07	35,044
219,34	36,258
219,61	28,321
219,88	21,500
220,15	17,267
220,42	13,712
220,68	16,751
220,95	15,952
221,22	13,664
221,49	10,168
221,76	11,133
222,03	10,751
222,30	9,893
222,57	6,438
222,84	1,829
223,11	-2,336
223,38	4,314
223,65	-3,440
223,92	-5,838
224,18	-6,805
224,45	-7,478
224,72	-7,050
224,99	-4,713
225,26	-7,157
225,53	-3,195
225,80	-0,539
226,07	2,028
226,34	4,535
226,61	7,126
226,88	4,924
227,14	4,910
227,41	6,068
227,68	3,424
227,95	3,844
228,22	4,546
228,49	4,497
228,76	4,520
229,03	5,886
229,30	5,605
229,57	7,397
229,83	8,438
230,10	6,898
230,37	5,916
230,64	8,606
230,91	8,006
231,18	8,421
231,45	6,674
231,72	6,026
231,99	6,838
232,25	7,011
232,52	5,728
232,79	5,487
233,06	5,575
233,33	6,468
233,60	6,443
233,87	6,864
234,14	6,159
234,41	7,758
234,67	8,465
234,94	7,647
235,21	7,568
235,48	7,925
235,75	8,297
236,02	8,451
236,29	5,249
236,56	4,888
236,82	4,154
237,09	4,924
237,36	5,133
237,63	3,734
237,90	5,248
238,17	7,142
238,44	5,916
238,71	8,850
238,97	8,530
239,24	7,228
239,51	8,126
239,78	8,652
240,05	10,616
240,32	12,801
240,59	10,055
240,86	10,237
241,12	11,409
241,39	9,874
241,66	10,074
241,93	9,750
242,20	7,721
242,47	8,681
242,74	10,268
243,00	10,057
243,27	11,712
243,54	9,246
243,81	8,598
244,08	6,845
244,35	9,819
244,62	9,315
244,88	6,110
245,15	2,035
245,42	7,836
245,69	10,645
245,96	17,938
246,23	13,562
246,50	12,199
246,76	11,924
247,03	17,041
247,30	13,189
247,57	3,238
247,84	2,938
248,11	12,183
248,37	10,055
248,64	9,927
248,91	8,986
249,18	7,628
249,45	6,615
249,72	1,567
249,99	-5,425
250,25	-3,686
250,52	0,984
250,79	1,680
251,06	1,770
251,33	8,491
251,60	11,557
251,86	13,982
252,13	15,429
252,40	15,044
252,67	14,077
252,94	15,226
253,21	14,485
253,47	13,532
253,74	11,413
254,01	11,169
254,28	11,056
254,55	11,102
254,81	10,964
255,08	9,234
255,35	9,912
255,62	9,866
255,89	9,135
256,16	8,634
256,42	8,760
256,69	7,927
256,96	8,414
257,23	8,184
257,50	8,181
257,76	8,574
258,03	8,777
258,30	8,810
258,57	9,633
258,84	9,775
259,11	10,385
259,37	11,024
259,64	11,545
259,91	11,419
260,18	11,321
260,45	10,748
260,71	10,918
260,98	10,229
261,25	9,819
261,52	9,373
261,79	9,694
262,05	9,931
262,32	10,431
262,59	10,434
262,86	10,536
263,13	10,606
263,39	10,613
263,66	10,496
263,93	10,532
264,20	10,554
264,47	10,403
264,73	10,487
265,00	10,602
265,27	10,719
265,54	10,647
265,81	10,533
266,07	10,398
266,34	10,471
266,61	10,444
266,88	10,425
267,15	10,474
267,41	10,594
267,68	10,532
267,95	10,714
268,22	10,966
268,48	11,184
268,75	11,322
269,02	11,449
269,29	11,512
269,56	11,659
269,82	11,566
270,09	11,383
270,36	11,279
270,63	11,316
270,89	11,092
271,16	11,164
271,43	11,233
271,70	11,366
271,97	11,354
272,23	11,466
272,50	11,424
272,77	11,516
273,04	11,520
273,30	11,705
273,57	11,726
273,84	11,910
274,11	11,993
274,37	12,069
274,64	12,317
274,91	12,332
275,18	12,243
275,45	12,242
275,71	12,340
275,98	12,310
276,25	12,343
276,52	12,252
276,78	12,344
277,05	12,473
277,32	12,576
277,59	12,568
277,85	12,803
278,12	13,038
278,39	13,207
278,66	13,297
278,92	13,311
279,19	13,364
279,46	13,427
279,73	13,353
279,99	13,154
280,26	12,980
280,53	13,135
280,80	13,082
281,06	13,062
281,33	13,185
281,60	13,248
281,87	13,344
282,13	13,570
282,40	13,456
282,67	13,661
282,94	13,820
283,20	13,746
283,47	13,814
283,74	14,003
284,01	14,055
284,27	14,128
284,54	14,090
284,81	14,131
285,07	14,114
285,34	14,201
285,61	14,111
285,88	14,080
286,14	14,240
286,41	14,435
286,68	14,338
286,95	14,501
287,21	14,427
287,48	14,568
287,75	14,663
288,02	14,680
288,28	14,624
288,55	14,821
288,82	14,852
289,08	15,015
289,35	15,024
289,62	15,113
289,89	15,051
290,15	15,064
290,42	15,013
290,69	15,017
290,95	14,970
291,22	14,963
291,49	14,992
291,76	15,040
292,02	15,072
292,29	15,185
292,56	15,191
292,82	15,278
293,09	15,386
293,36	15,464
293,63	15,437
293,89	15,532
294,16	15,535
294,43	15,628
294,69	15,640
294,96	15,603
295,23	15,591
295,50	15,711
295,76	15,741
296,03	15,765
296,30	15,841
296,56	15,816
296,83	15,936
297,10	15,975
297,36	15,982
297,63	15,977
297,90	16,042
298,16	16,129
298,43	16,231
298,70	16,170
298,97	16,179
299,23	16,300
299,50	16,387
299,77	16,395
300,03	16,362
300,30	16,377
300,57	16,421
300,83	16,479
301,10	16,473
301,37	16,463
301,63	16,516
301,90	16,547
302,17	16,609
302,44	16,605
302,70	16,666
302,97	16,692
303,24	16,744
303,50	16,757
303,77	16,774
304,04	16,724
304,30	16,863
304,57	16,794
304,84	16,864
305,10	16,875
305,37	16,920
305,64	16,912
305,90	16,981
306,17	17,000
306,44	17,075
306,70	17,018
306,97	17,047
307,24	17,049
307,50	17,113
307,77	17,072
308,04	17,035
308,30	17,034
308,57	17,103
308,84	17,157
309,10	17,204
309,37	17,220
309,64	17,356
309,90	17,471
310,17	17,507
310,44	17,490
310,70	17,517
310,97	17,540
311,24	17,578
311,50	17,530
311,77	17,502
312,04	17,502
312,30	17,553
312,57	17,532
312,84	17,534
313,10	17,521
313,37	17,544
313,63	17,514
313,90	17,586
314,17	17,522
314,43	17,609
314,70	17,720
314,97	17,638
315,23	17,679
315,50	17,743
315,77	17,693
316,03	17,707
316,30	17,655
316,57	17,607
316,83	17,710
317,10	17,655
317,36	17,626
317,63	17,679
317,90	17,689
318,16	17,720
318,43	17,733
318,70	17,761
318,96	17,895
319,23	17,938
319,50	17,968
319,76	18,070
320,03	18,114
320,29	18,077
320,56	18,017
320,83	18,007
321,09	18,141
321,36	18,234
321,63	18,278
321,89	18,208
322,16	18,262
322,42	18,335
322,69	18,388
322,96	18,214
323,22	18,041
323,49	17,943
323,76	17,935
324,02	18,013
324,29	18,045
324,55	18,002
324,82	18,062
325,09	18,181
325,35	18,282
325,62	18,374
325,88	18,268
326,15	18,183
326,42	18,208
326,68	18,250
326,95	18,196
327,21	18,125
327,48	18,121
327,75	18,158
328,01	18,295
328,28	18,282
328,55	18,283
328,81	18,335
329,08	18,395
329,34	18,351
329,61	18,288
329,88	18,184
330,14	18,158
330,41	18,188
330,67	18,199
330,94	18,171
331,21	18,221
331,47	18,250
331,74	18,267
332,00	18,175
332,27	18,087
332,53	18,071
332,80	18,069
333,07	17,988
333,33	18,035
333,60	18,021
333,86	18,141
334,13	18,195
334,40	18,284
334,66	18,330
334,93	18,417
335,19	18,407
335,46	18,513
335,73	18,594
335,99	18,658
336,26	18,598
336,52	18,613
336,79	18,565
337,05	18,582
337,32	18,499
337,59	18,352
337,85	18,225
338,12	18,167
338,38	18,128
338,65	18,132
338,91	18,165
339,18	18,266
339,45	18,379
339,71	18,480
339,98	18,548
340,24	18,644
340,51	18,625
340,77	18,554
341,04	18,495
341,31	18,434
341,57	18,345
341,84	18,294
342,10	18,201
342,37	18,250
342,63	18,282
342,90	18,320
343,17	18,346
343,43	18,373
343,70	18,326
343,96	18,296
344,23	18,280
344,49	18,274
344,76	18,227
345,02	18,120
345,29	18,200
345,56	18,311
345,82	18,354
346,09	18,271
346,35	18,205
346,62	18,221
346,88	18,440
347,15	18,433
347,41	18,388
347,68	18,378
347,94	18,437
348,21	18,459
348,48	18,463
348,74	18,351
349,01	18,324
349,27	18,329
349,54	18,304
349,80	18,291
350,07	18,377
350,33	18,371
350,60	18,368
350,86	18,303
351,13	18,269
351,39	18,264
351,66	18,230
351,93	18,197
352,19	18,257
352,46	18,225
352,72	18,257
352,99	18,246
353,25	18,309
353,52	18,381
353,78	18,403
354,05	18,293
354,31	18,309
354,58	18,370
354,84	18,385
355,11	18,408
355,37	18,452
355,64	18,335
355,90	18,366
356,17	18,328
356,43	18,235
356,70	18,254
356,97	18,188
357,23	18,128
357,50	18,197
357,76	18,246
358,03	18,395
358,29	18,400
358,56	18,439
358,82	18,494
359,09	18,546
359,35	18,474
359,62	18,495
359,88	18,400
360,15	18,406
360,41	18,341
360,68	18,288
360,94	18,274
361,21	18,362
361,47	18,367
361,74	18,343
362,00	18,312
362,27	18,311
362,53	18,359
362,80	18,302
363,06	18,262
363,33	18,225
363,59	18,290
363,86	18,347
364,12	18,284
364,39	18,243
364,65	18,289
364,92	18,351
365,18	18,348
365,45	18,309
365,71	18,312
365,98	18,428
366,24	18,413
366,51	18,341
366,77	18,249
367,04	18,238
367,30	18,273
367,57	18,234
367,83	18,167
368,10	18,180
368,36	18,202
368,63	18,258
368,89	18,200
369,15	18,155
369,42	18,202
369,68	18,235
369,95	18,258
370,21	18,328
370,48	18,309
370,74	18,333
371,01	18,360
371,27	18,315
371,54	18,334
371,80	18,342
372,07	18,367
372,33	18,423
372,60	18,417
372,86	18,389
373,13	18,425
373,39	18,354
373,66	18,336
373,92	18,281
374,18	18,244
374,45	18,272
374,71	18,320
374,98	18,363
375,24	18,410
375,51	18,367
375,77	18,351
376,04	18,337
376,30	18,349
376,57	18,346
376,83	18,237
377,10	18,128
377,36	18,110
377,62	18,080
377,89	18,079
378,15	18,108
378,42	18,083
378,68	18,135
378,95	18,252
379,21	18,370
379,48	18,378
379,74	18,322
380,00	18,196
380,27	18,238
380,53	18,306
380,80	18,290
381,06	18,241
381,33	18,289
381,59	18,383
381,86	18,436
382,12	18,378
382,38	18,362
382,65	18,373
382,91	18,385
383,18	18,364
383,44	18,317
383,71	18,313
383,97	18,311
384,24	18,278
384,50	18,287
384,76	18,234
385,03	18,236
385,29	18,257
385,56	18,290
385,82	18,348
386,09	18,374
386,35	18,357
386,61	18,388
386,88	18,431
387,14	18,412
387,41	18,446
387,67	18,418
387,94	18,403
388,20	18,409
388,46	18,395
388,73	18,387
388,99	18,401
389,26	18,341
389,52	18,337
389,78	18,293
390,05	18,273
390,31	18,265
390,58	18,198
390,84	18,150
391,11	18,148
391,37	18,106
391,63	18,163
391,90	18,145
392,16	18,162
392,43	18,174
392,69	18,256
392,95	18,267
393,22	18,282
393,48	18,223
393,75	18,338
394,01	18,332
394,27	18,409
394,54	18,392
394,80	18,393
395,07	18,433
395,33	18,478
395,59	18,382
395,86	18,376
396,12	18,381
396,39	18,349
396,65	18,297
396,91	18,252
397,18	18,269
397,44	18,228
397,71	18,180
397,97	18,110
398,23	18,065
398,50	18,111
398,76	18,156
399,03	18,067
399,29	18,082
399,55	18,106
399,82	18,147
400,08	18,254
400,34	18,198
400,61	18,118
400,87	18,166
401,14	18,222
401,40	18,228
401,66	18,159
401,93	18,120
402,19	18,133
402,46	18,164
402,72	18,134
402,98	18,136
403,25	18,152
403,51	18,217
403,77	18,171
404,04	18,182
404,30	18,157
404,57	18,178
404,83	18,150
405,09	18,092
405,36	18,055
405,62	18,061
405,88	18,085
406,15	18,134
406,41	18,124
406,67	18,161
406,94	18,218
407,20	18,175
407,47	18,209
407,73	18,230
407,99	18,218
408,26	18,182
408,52	18,108
408,78	18,211
409,05	18,280
409,31	18,305
409,57	18,361
409,84	18,422
410,10	18,477
410,37	18,423
410,63	18,296
410,89	18,275
411,16	18,218
411,42	18,104
411,68	18,046
411,95	18,062
412,21	18,098
412,47	18,075
412,74	18,009
413,00	18,065
413,26	18,065
413,53	18,007
413,79	17,990
414,05	18,027
414,32	18,087
414,58	18,090
414,84	18,002
415,11	18,030
415,37	18,024
415,63	17,876
415,90	17,908
416,16	17,842
416,42	17,877
416,69	17,928
416,95	17,927
417,21	17,977
417,48	18,122
417,74	18,073
418,00	18,044
418,27	18,023
418,53	18,024
418,79	17,985
419,06	17,959
419,32	17,892
419,58	17,895
419,85	17,908
420,11	17,964
420,37	17,920
420,64	17,891
420,90	17,849
421,16	17,856
421,43	17,828
421,69	17,814
421,95	17,819
422,22	17,821
422,48	17,874
422,74	17,906
423,01	17,896
423,27	17,940
423,53	17,945
423,79	17,898
424,06	17,916
424,32	17,930
424,58	17,933
424,85	17,927
425,11	17,876
425,37	17,925
425,64	17,960
425,90	17,939
426,16	17,921
426,43	17,934
426,69	17,936
426,95	17,960
427,21	17,918
427,48	17,885
427,74	17,854
428,00	17,855
428,27	17,807
428,53	17,861
428,79	17,879
429,06	17,905
429,32	17,905
429,58	17,935
429,84	17,966
430,11	18,014
430,37	18,003
430,63	17,963
430,90	17,949
431,16	17,947
431,42	17,934
431,68	17,898
431,95	17,918
432,21	17,892
432,47	17,949
432,74	17,969
433,00	17,968
433,26	17,973
433,52	17,920
433,79	17,876
434,05	17,883
434,31	17,826
434,58	17,831
434,84	17,814
435,10	17,831
435,36	17,875
435,63	17,908
435,89	17,909
436,15	17,911
436,41	17,855
436,68	17,887
436,94	17,941
437,20	17,989
437,47	17,985
437,73	18,013
437,99	18,083
438,25	18,138
438,52	18,100
438,78	18,066
439,04	18,082
439,30	18,082
439,57	18,075
439,83	18,072
440,09	18,026
440,35	18,071
440,62	17,984
440,88	17,958
441,14	17,958
441,41	17,931
441,67	17,927
441,93	17,942
442,19	17,881
442,46	18,052
442,72	18,046
442,98	18,057
443,24	18,109
443,51	18,029
443,77	18,026
444,03	18,136
444,29	18,050
444,56	18,021
444,82	18,036
445,08	18,030
445,34	18,134
445,61	18,159
445,87	18,097
446,13	18,119
446,39	18,151
446,65	18,145
446,92	18,179
447,18	18,158
447,44	18,102
447,70	18,078
447,97	18,112
448,23	18,132
448,49	18,080
448,75	17,968
449,02	17,892
449,28	17,905
449,54	17,911
449,80	17,841
450,07	17,762
450,33	17,815
450,59	17,849
450,85	17,911
451,11	17,948
451,38	17,908
451,64	17,796
451,90	17,783
452,16	17,768
452,43	17,746
452,69	17,648
452,95	17,580
453,21	17,567
453,47	17,662
453,74	17,668
454,00	17,625
454,26	17,609
454,52	17,668
454,79	17,704
455,05	17,723
455,31	17,703
455,57	17,697
455,83	17,684
456,10	17,676
456,36	17,666
456,62	17,653
456,88	17,627
457,14	17,617
457,41	17,620
457,67	17,606
457,93	17,549
458,19	17,500
458,45	17,478
458,72	17,454
458,98	17,421
459,24	17,393
459,50	17,412
459,76	17,454
460,03	17,482
460,29	17,432
460,55	17,488
460,81	17,500
461,07	17,475
461,34	17,420
461,60	17,438
461,86	17,353
462,12	17,364
462,38	17,328
462,65	17,318
462,91	17,308
463,17	17,301
463,43	17,212
463,69	17,242
463,96	17,263
464,22	17,293
464,48	17,254
464,74	17,243
465,00	17,229
465,26	17,217
465,53	17,256
465,79	17,206
466,05	17,127
466,31	17,133
466,57	17,123
466,84	17,122
467,10	17,159
467,36	17,116
467,62	17,091
467,88	17,085
468,14	17,055
468,41	17,064
468,67	17,043
468,93	17,001
469,19	16,984
469,45	16,997
469,71	17,013
469,98	16,995
470,24	16,939
470,50	16,911
470,76	16,886
471,02	16,848
471,28	16,823
471,55	16,781
471,81	16,782
472,07	16,769
472,33	16,750
472,59	16,731
472,85	16,743
473,12	16,721
473,38	16,666
473,64	16,637
473,90	16,603
474,16	16,601
474,42	16,616
474,68	16,578
474,95	16,571
475,21	16,587
475,47	16,594
475,73	16,633
475,99	16,639
476,25	16,644
476,52	16,663
476,78	16,651
477,04	16,639
477,30	16,629
477,56	16,607
477,82	16,593
478,08	16,571
478,35	16,556
478,61	16,536
478,87	16,504
479,13	16,476
479,39	16,455
479,65	16,452
479,91	16,449
480,17	16,435
480,44	16,427
480,70	16,440
480,96	16,424
481,22	16,428
481,48	16,409
481,74	16,383
482,00	16,381
482,27	16,375
482,53	16,368
482,79	16,365
483,05	16,324
483,31	16,290
483,57	16,276
483,83	16,270
484,09	16,267
484,36	16,241
484,62	16,219
484,88	16,223
485,14	16,238
485,40	16,249
485,66	16,222
485,92	16,209
486,18	16,223
486,44	16,230
486,71	16,214
486,97	16,179
487,23	16,166
487,49	16,174
487,75	16,142
488,01	16,111
488,27	16,125
488,53	16,122
488,79	16,122
489,06	16,092
489,32	16,063
489,58	16,057
489,84	16,045
490,10	15,988
490,36	15,965
490,62	15,963
490,88	15,933
491,14	15,917
491,40	15,933
491,67	15,904
491,93	15,923
492,19	15,904
492,45	15,857
492,71	15,833
492,97	15,773
493,23	15,722
493,49	15,711
493,75	15,648
494,01	15,648
494,28	15,635
494,54	15,664
494,80	15,718
495,06	15,691
495,32	15,703
495,58	15,723
495,84	15,688
496,10	15,661
496,36	15,603
496,62	15,570
496,88	15,577
497,14	15,524
497,41	15,435
497,67	15,449
497,93	15,453
498,19	15,459
498,45	15,409
498,71	15,389
498,97	15,378
499,23	15,421
499,49	15,379
499,75	15,391
500,01	15,376
500,27	15,367
500,53	15,345
500,80	15,342
501,06	15,344
501,32	15,326
501,58	15,274
501,84	15,273
502,10	15,262
502,36	15,265
502,62	15,253
502,88	15,194
503,14	15,185
503,40	15,181
503,66	15,154
503,92	15,158
504,18	15,122
504,44	15,098
504,70	15,095
504,97	15,064
505,23	15,060
505,49	15,042
505,75	14,994
506,01	14,958
506,27	14,953
506,53	14,969
506,79	14,984
507,05	14,975
507,31	14,962
507,57	14,928
507,83	14,958
508,09	14,930
508,35	14,887
508,61	14,855
508,87	14,825
509,13	14,791
509,39	14,806
509,65	14,790
509,91	14,774
510,17	14,765
510,43	14,715
510,70	14,700
510,96	14,700
511,22	14,676
511,48	14,622
511,74	14,614
512,00	14,594
512,26	14,593
512,52	14,574
512,78	14,544
513,04	14,548
513,30	14,554
513,56	14,530
513,82	14,514
514,08	14,507
514,34	14,495
514,60	14,482
514,86	14,466
515,12	14,434
515,38	14,396
515,64	14,389
515,90	14,371
516,16	14,322
516,42	14,305
516,68	14,279
516,94	14,281
517,20	14,271
517,46	14,246
517,72	14,258
517,98	14,268
518,24	14,275
518,50	14,240
518,76	14,236
519,02	14,227
519,28	14,217
519,54	14,185
519,80	14,161
520,06	14,125
520,32	14,125
520,58	14,089
520,84	14,079
521,10	14,061
521,36	14,048
521,62	14,035
521,88	14,039
522,14	14,054
522,40	14,057
522,66	14,080
522,92	14,094
523,18	14,075
523,44	14,060
523,70	14,044
523,96	13,995
524,22	13,944
524,48	13,917
524,74	13,887
525,00	13,887
525,26	13,868
525,52	13,869
525,78	13,872
526,04	13,875
526,30	13,856
526,56	13,853
526,82	13,816
527,08	13,793
527,34	13,778
527,60	13,787
527,86	13,809
528,12	13,824
528,38	13,804
528,64	13,833
528,90	13,850
529,16	13,837
529,42	13,806
529,68	13,771
529,94	13,749
530,20	13,764
530,46	13,753
530,72	13,754
530,98	13,738
531,24	13,771
531,50	13,787
531,76	13,777
532,02	13,763
532,28	13,765
532,54	13,747
532,80	13,762
533,06	13,742
533,32	13,734
533,58	13,738
533,84	13,748
534,10	13,753
534,35	13,769
534,61	13,761
534,87	13,734
535,13	13,747
535,39	13,754
535,65	13,743
535,91	13,734
536,17	13,766
536,43	13,764
536,69	13,824
536,95	13,845
537,21	13,857
537,47	13,866
537,73	13,844
537,99	13,834
